#t / s;C(t) / mol/dm3
2;0.0373
7;0.2079
12;0.3305
17;0.4318
22;0.5139
27;0.5810
32;0.6375
37;0.6802
42;0.7186
47;0.7473
52;0.7729
57;0.7932
62;0.8081
67;0.8230
72;0.8316
77;0.8422
82;0.8486
87;0.8561
92;0.8603
97;0.8657
102;0.8678
107;0.8699
112;0.8710
117;0.8742
122;0.8774
127;0.8785
132;0.8785
137;0.8795
142;0.8801
147;0.8806
152;0.8808
157;0.8812
162;0.8816
167;0.8818
172;0.8818
177;0.8819